beta,magnetization
0,0.161616
0.001,0.16188
0.002,0.161552
0.003,0.163504
0.004,0.16048
0.0050000004,0.162888
0.006,0.161432
0.007,0.164552
0.008,0.163944
0.009000001,0.164952
0.010000001,0.164744
0.011000001,0.165408
0.012,0.16488
0.013,0.165656
0.014,0.164696
0.015000001,0.164192
0.016,0.16884
0.017,0.16796
0.018000001,0.168264
0.019000001,0.168592
0.020000001,0.166288
0.021000002,0.171544
0.022000002,0.168264
0.023000002,0.170752
0.024,0.167656
0.025,0.168752
0.026,0.170728
0.027,0.170096
0.028,0.170472
0.029000001,0.17184
0.030000001,0.169688
0.031000001,0.172272
0.032,0.171752
0.033,0.172816
0.034,0.1722
0.035,0.171472
0.036000002,0.17344
0.037,0.174352
0.038000003,0.173768
0.039,0.174144
0.040000003,0.177216
0.041,0.1752
0.042000003,0.177728
0.043,0.174808
0.044000003,0.177112
0.045,0.174432
0.046000004,0.178816
0.047000002,0.177128
0.048,0.176464
0.049000002,0.17892
0.05,0.17668
0.051000003,0.180664
0.052,0.180688
0.053000003,0.18108
0.054,0.18176
0.055000003,0.181832
0.056,0.183104
0.057000004,0.184168
0.058000002,0.179496
0.059000004,0.182016
0.060000002,0.183384
0.061000004,0.18232
0.062000003,0.182816
0.063,0.184168
0.064,0.18248
0.065000005,0.185248
0.066,0.186432
0.067,0.18668
0.068,0.18876
0.069000006,0.188736
0.07,0.188448
0.071,0.186048
0.072000004,0.18744
0.07300001,0.188728
0.074,0.190968
0.075,0.18792
0.076000005,0.190448
0.07700001,0.19244
0.078,0.188024
0.079,0.194264
0.080000006,0.191128
0.081,0.193672
0.082,0.192712
0.083000004,0.192528
0.08400001,0.194856
0.085,0.194704
0.086,0.193328
0.087000005,0.196784
0.08800001,0.195152
0.089,0.198336
0.09,0.196272
0.091000006,0.196712
0.09200001,0.198992
0.093,0.198784
0.094000004,0.197456
0.095000006,0.198024
0.096,0.19896
0.097,0.201032
0.098000005,0.204776
0.09900001,0.203008
0.1,0.199912
0.101,0.19924
0.102000006,0.202792
0.10300001,0.204136
0.104,0.203168
0.105000004,0.202736
0.106000006,0.201976
0.10700001,0.204376
0.108,0.206064
0.109000005,0.208528
0.11000001,0.206464
0.11100001,0.206952
0.112,0.206248
0.113000005,0.206568
0.11400001,0.208744
0.115,0.210552
0.116000004,0.212352
0.117000006,0.210288
0.11800001,0.209784
0.119,0.211056
0.120000005,0.212232
0.12100001,0.213256
0.12200001,0.215568
0.123,0.21536
0.124000005,0.21776
0.125,0.216808
0.126,0.21508
0.127,0.21672
0.128,0.217488
0.12900001,0.217488
0.13000001,0.218432
0.13100001,0.218192
0.132,0.221776
0.133,0.221808
0.134,0.222152
0.135,0.220448
0.136,0.222608
0.13700001,0.22248
0.13800001,0.222728
0.13900001,0.226792
0.14,0.22528
0.141,0.222592
0.142,0.228976
0.143,0.227336
0.14400001,0.22932
0.14500001,0.229912
0.14600001,0.231344
0.147,0.229472
0.148,0.229344
0.149,0.229168
0.15,0.234312
0.15100001,0.2332
0.15200001,0.230504
0.15300001,0.236752
0.15400001,0.233736
0.155,0.237672
0.156,0.236576
0.157,0.24068
0.158,0.236536
0.15900001,0.239592
0.16000001,0.240048
0.16100001,0.237392
0.162,0.241128
0.163,0.245584
0.164,0.24212
0.165,0.242456
0.16600001,0.246056
0.16700001,0.24504
0.16800001,0.247952
0.16900001,0.245528
0.17,0.245104
0.171,0.247128
0.172,0.24796
0.17300001,0.249888
0.17400001,0.24984
0.17500001,0.254472
0.17600001,0.253152
0.177,0.253792
0.178,0.253264
0.179,0.253544
0.18,0.258824
0.18100001,0.259464
0.18200001,0.257328
0.18300001,0.260576
0.18400002,0.263424
0.185,0.257904
0.186,0.260224
0.187,0.263648
0.18800001,0.260864
0.18900001,0.264152
0.19000001,0.26276
0.19100001,0.26488
0.192,0.269552
0.193,0.267536
0.194,0.26696
0.19500001,0.267864
0.19600001,0.273136
0.19700001,0.27136
0.19800001,0.269728
0.19900002,0.276528
0.2,0.27512
0.201,0.27652
0.202,0.27708
0.20300001,0.277848
0.20400001,0.280128
0.20500001,0.278296
0.20600002,0.28368
0.20700002,0.281144
0.208,0.285
0.209,0.284888
0.21000001,0.286392
0.21100001,0.28896
0.21200001,0.290704
0.21300001,0.28876
0.21400002,0.293008
0.215,0.293848
0.216,0.29248
0.21700001,0.300456
0.21800001,0.291896
0.21900001,0.295784
0.22000001,0.295584
0.22100002,0.29808
0.22200002,0.29892
0.223,0.300704
0.224,0.301672
0.22500001,0.303232
0.22600001,0.307312
0.22700001,0.308536
0.22800002,0.307696
0.22900002,0.31088
0.23,0.309864
0.231,0.308976
0.23200001,0.313672
0.23300001,0.311808
0.23400001,0.317064
0.23500001,0.315424
0.23600002,0.317656
0.23700002,0.31756
0.238,0.327856
0.23900001,0.320144
0.24000001,0.323024
0.24100001,0.323568
0.24200001,0.323272
0.24300002,0.329968
0.24400002,0.328056
0.245,0.331312
0.246,0.331016
0.24700001,0.337152
0.24800001,0.336928
0.24900001,0.337016
0.25,0.338648
0.25100002,0.339104
0.252,0.339392
0.25300002,0.346168
0.254,0.344104
0.25500003,0.346216
0.256,0.34872
0.257,0.346512
0.25800002,0.350584
0.259,0.35156
0.26000002,0.353304
0.261,0.356576
0.26200002,0.358744
0.263,0.357344
0.264,0.356512
0.26500002,0.363808
0.266,0.362248
0.26700002,0.368352
0.268,0.369696
0.26900002,0.362784
0.27,0.372984
0.27100003,0.374976
0.272,0.374448
0.273,0.372904
0.27400002,0.381856
0.275,0.379168
0.27600002,0.380672
0.277,0.386552
0.27800003,0.382024
0.279,0.391456
0.28,0.38844
0.28100002,0.392112
0.282,0.38828
0.28300002,0.396904
0.284,0.398152
0.28500003,0.40024
0.286,0.401832
0.287,0.403304
0.28800002,0.402024
0.289,0.40428
0.29000002,0.412032
0.291,0.418616
0.29200003,0.412936
0.293,0.419336
0.294,0.41992
0.29500002,0.424112
0.296,0.430904
0.29700002,0.423712
0.298,0.427176
0.29900002,0.431064
0.3,0.437904
0.30100003,0.434392
0.30200002,0.441032
0.303,0.438128
0.30400002,0.439184
0.305,0.44816
0.30600002,0.449112
0.307,0.445976
0.30800003,0.453376
0.30900002,0.453768
0.31,0.456968
0.31100002,0.456248
0.312,0.461216
0.31300002,0.46124
0.314,0.468008
0.31500003,0.469728
0.316,0.47804
0.317,0.477344
0.31800002,0.473328
0.319,0.483536
0.32000002,0.47824
0.321,0.49092
0.32200003,0.490416
0.323,0.486456
0.324,0.490096
0.32500002,0.490592
0.326,0.49756
0.32700002,0.496792
0.328,0.502272
0.32900003,0.505592
0.33,0.507712
0.33100003,0.507592
0.33200002,0.513904
0.333,0.521096
0.33400002,0.518816
0.335,0.526504
0.33600003,0.525688
0.337,0.52956
0.33800003,0.532528
0.33900002,0.534384
0.34,0.538016
0.34100002,0.544728
0.342,0.54264
0.34300002,0.550096
0.344,0.548056
0.34500003,0.555088
0.34600002,0.560352
0.347,0.558424
0.34800002,0.562512
0.349,0.563944
0.35000002,0.5646
0.351,0.572872
0.35200003,0.572592
0.35300002,0.57768
0.354,0.582544
0.35500002,0.586056
0.356,0.586976
0.35700002,0.589696
0.358,0.595592
0.35900003,0.599952
0.36,0.595392
0.36100003,0.600432
0.36200002,0.606608
0.363,0.605128
0.36400002,0.607112
0.365,0.610888
0.36600003,0.61444
0.367,0.620464
0.36800003,0.623056
0.36900002,0.626952
0.37,0.631992
0.37100002,0.6346
0.372,0.635736
0.37300003,0.642168
0.374,0.63972
0.37500003,0.648576
0.37600002,0.64256
0.377,0.652496
0.37800002,0.650944
0.379,0.659584
0.38000003,0.660776
0.381,0.66376
0.38200003,0.665104
0.38300002,0.670568
0.384,0.67492
0.38500002,0.6742
0.386,0.674904
0.38700002,0.68064
0.388,0.686232
0.38900003,0.68504
0.39000002,0.68884
0.39100003,0.693104
0.39200002,0.690136
0.393,0.699608
0.39400002,0.699656
0.395,0.706536
0.39600003,0.70792
0.397,0.711304
0.39800003,0.71872
0.39900002,0.719568
0.4,0.721424
0.40100002,0.719944
0.402,0.724264
0.40300003,0.72748
0.404,0.731224
0.40500003,0.730872
0.40600002,0.738552
0.407,0.732792
0.40800002,0.73928
0.409,0.744656
0.41000003,0.7478
0.411,0.748832
0.41200003,0.751056
0.41300002,0.752744
0.41400003,0.760792
0.41500002,0.761112
0.416,0.767072
0.41700003,0.769344
0.418,0.76772
0.41900003,0.77576
0.42000002,0.774968
0.42100003,0.776088
0.42200002,0.780816
0.423,0.782784
0.42400002,0.78464
0.425,0.782232
0.42600003,0.790744
0.42700002,0.794856
0.42800003,0.795024
0.42900002,0.798688
0.43,0.801904
0.43100002,0.802368
0.432,0.806056
0.43300003,0.80612
0.43400002,0.810352
0.43500003,0.810992
0.43600002,0.809912
0.437,0.809744
0.43800002,0.817376
0.439,0.818992
0.44000003,0.824144
0.441,0.824952
0.44200003,0.826056
0.44300002,0.82808
0.44400004,0.831792
0.44500002,0.830832
0.446,0.836376
0.44700003,0.83648
0.448,0.838304
0.44900003,0.836992
0.45000002,0.838296
0.45100003,0.842
0.45200002,0.84592
0.453,0.846704
0.45400003,0.85164
0.455,0.855168
0.45600003,0.851032
0.45700002,0.85552
0.45800003,0.85696
0.45900002,0.857168
0.46,0.859864
0.46100003,0.862736
0.462,0.865632
0.46300003,0.86332
0.46400002,0.86772
0.46500003,0.865928
0.46600002,0.870304
0.467,0.87228
0.46800002,0.870512
0.469,0.875584
0.47000003,0.877304
0.47100002,0.877264
0.47200003,0.881448
0.47300002,0.882024
0.47400004,0.88088
0.47500002,0.883672
0.476,0.886776
0.47700003,0.88824
0.47800002,0.889792
0.47900003,0.890088
0.48000002,0.890856
0.48100004,0.890656
0.48200002,0.893912
0.483,0.892872
0.48400003,0.897024
0.485,0.897104
0.48600003,0.90056
0.48700002,0.901176
0.48800004,0.900624
0.48900002,0.90084
0.49,0.905296
0.49100003,0.903504
0.492,0.907184
0.49300003,0.904608
0.49400002,0.908816
0.49500003,0.910168
0.49600002,0.909824
0.497,0.910976
0.49800003,0.91268
0.499,0.915088
0.5,0.915432
0.50100005,0.91896
0.50200003,0.917112
0.503,0.917208
0.504,0.921632
0.505,0.919288
0.50600004,0.919992
0.507,0.923376
0.508,0.921496
0.509,0.922816
0.51000005,0.924792
0.51100004,0.924888
0.512,0.923648
0.513,0.926656
0.514,0.928624
0.51500005,0.92956
0.51600003,0.927696
0.517,0.933672
0.518,0.930344
0.51900005,0.933008
0.52000004,0.933456
0.521,0.93264
0.522,0.93364
0.523,0.938088
0.52400005,0.936112
0.52500004,0.93936
0.526,0.939056
0.527,0.935896
0.528,0.938776
0.52900004,0.941792
0.53000003,0.940216
0.531,0.93992
0.532,0.942992
0.53300005,0.942816
0.53400004,0.944376
0.535,0.944952
0.536,0.945368
0.537,0.9448
0.53800005,0.94764
0.53900003,0.946312
0.54,0.945936
0.541,0.948456
0.54200006,0.946416
0.54300004,0.949576
0.544,0.950144
0.545,0.951472
0.546,0.951376
0.54700005,0.952792
0.54800004,0.952872
0.549,0.950672
0.55,0.953872
0.551,0.953424
0.55200005,0.954832
0.55300003,0.957088
0.554,0.954072
0.555,0.957576
0.55600005,0.95712
0.55700004,0.957672
0.558,0.959096
0.559,0.957136
0.56,0.959312
0.56100005,0.960104
0.56200004,0.959816
0.563,0.960488
0.564,0.961112
0.565,0.960624
0.56600004,0.961904
0.56700003,0.9614
0.568,0.962136
0.569,0.962856
0.57000005,0.962184
0.57100004,0.963896
0.572,0.963928
0.573,0.963128
0.574,0.963832
0.57500005,0.965584
0.57600003,0.965368
0.577,0.9658
0.578,0.965744
0.57900006,0.967064
0.58000004,0.968616
0.58100003,0.966632
0.582,0.968512
0.583,0.967536
0.58400005,0.968112
0.58500004,0.969024
0.586,0.968976
0.587,0.969496
0.588,0.969272
0.58900005,0.969944
0.59000003,0.969496
0.591,0.969632
0.592,0.971184
0.59300005,0.970168
0.59400004,0.97216
0.595,0.971912
0.596,0.97204
0.597,0.972256
0.59800005,0.972272
0.59900004,0.973176
0.6,0.972792
0.601,0.973936
0.60200006,0.974232
0.60300004,0.973696
0.60400003,0.974776
0.605,0.97488
0.606,0.974664
0.60700005,0.975848
0.60800004,0.975432
0.609,0.975968
0.61,0.976584
0.611,0.97476
0.61200005,0.978112
0.61300004,0.976328
0.614,0.976792
0.615,0.976048
0.61600006,0.978064
0.61700004,0.977792
0.61800003,0.977472
0.619,0.977616
0.62,0.978392
0.62100005,0.97876
0.62200004,0.978688
0.623,0.979024
0.624,0.979208
0.625,0.9796
0.62600005,0.979704
0.62700003,0.97996
0.628,0.980632
0.629,0.981152
0.63000005,0.980296
0.63100004,0.981136
0.632,0.980584
0.633,0.980912
0.634,0.980512
0.63500005,0.981488
0.63600004,0.981072
0.637,0.982016
0.638,0.982128
0.63900006,0.98272
0.64000005,0.982512
0.64100003,0.982056
0.642,0.981904
0.643,0.983096
0.64400005,0.982504
0.64500004,0.983424
0.646,0.982472
0.647,0.983216
0.648,0.983616
0.64900005,0.983824
0.65000004,0.98388
0.651,0.98308
0.652,0.983688
0.65300006,0.98348
0.65400004,0.984104
0.65500003,0.984264
0.656,0.984408
0.657,0.98396
0.65800005,0.984552
0.65900004,0.985672
0.66,0.985424
0.661,0.984832
0.66200006,0.986232
0.66300005,0.986344
0.66400003,0.986032
0.665,0.986248
0.666,0.986728
0.66700006,0.986664
0.66800004,0.986104
0.669,0.986696
0.67,0.986696
0.671,0.987528
0.67200005,0.98768
0.67300004,0.986824
0.674,0.987416
0.675,0.988088
0.67600006,0.98768
0.67700005,0.987696
0.67800003,0.98764
0.679,0.987664
0.68,0.98808
0.68100005,0.988088
0.68200004,0.988056
0.683,0.987952
0.684,0.98832
0.68500006,0.98852
0.68600005,0.988432
0.68700004,0.988696
0.688,0.989776
0.689,0.989248
0.69000006,0.989536
0.69100004,0.988168
0.69200003,0.988672
0.693,0.989584
0.694,0.989344
0.69500005,0.989816
0.69600004,0.989736
0.697,0.99012
0.698,0.98932
0.69900006,0.98972
0.70000005,0.989976
0.70100003,0.990336
0.702,0.990584
0.703,0.990328
0.70400006,0.989712
0.70500004,0.99068
0.70600003,0.990432
0.707,0.991208
0.708,0.990672
0.70900005,0.99108
0.71000004,0.99028
0.711,0.990952
0.712,0.991656
0.71300006,0.991184
0.71400005,0.991416
0.71500003,0.991088
0.716,0.991328
0.717,0.99132
0.71800005,0.992016
0.71900004,0.991528
0.72,0.992192
0.721,0.991808
0.72200006,0.992616
0.72300005,0.991792
0.72400004,0.992544
0.725,0.992128
0.726,0.992272
0.72700006,0.99196
0.72800004,0.991856
0.72900003,0.99312
0.73,0.992616
0.731,0.99244
0.73200005,0.992232
0.73300004,0.99252
0.734,0.993032
0.735,0.992304
0.73600006,0.992856
0.73700005,0.992888
0.73800004,0.993288
0.739,0.99292
0.74,0.992816
0.74100006,0.993288
0.74200004,0.993408
0.74300003,0.99324
0.744,0.993656
0.74500006,0.994008
0.74600005,0.993424
0.74700004,0.993648
0.748,0.99368
0.749,0.993744
0.75000006,0.993568
0.75100005,0.99368
0.75200003,0.993752
0.753,0.994424
0.754,0.99404
0.75500005,0.993936
0.75600004,0.99464
0.757,0.994328
0.758,0.994144
0.75900006,0.99392
0.76000005,0.994488
0.76100004,0.994352
0.762,0.994192
0.763,0.994536
0.76400006,0.994184
0.76500005,0.99496
0.76600003,0.994528
0.767,0.994592
0.768,0.994712
0.76900005,0.99508
0.77000004,0.99492
0.771,0.994528
0.772,0.994768
0.77300006,0.995272
0.77400005,0.994688
0.77500004,0.995032
0.776,0.994976
0.777,0.99504
0.77800006,0.995112
0.77900004,0.995096
0.78000003,0.995536
0.781,0.994992
0.78200006,0.99536
0.78300005,0.99496
0.78400004,0.99536
0.785,0.99508
0.786,0.995576
0.78700006,0.995256
0.78800005,0.995752
0.78900003,0.99552
0.79,0.99576
0.791,0.995952
0.79200006,0.996128
0.79300004,0.995472
0.794,0.995848
0.795,0.995536
0.79600006,0.995984
0.79700005,0.995984
0.79800004,0.995768
0.799,0.995816
0.8,0.995888
0.80100006,0.9962
0.80200005,0.996144
0.80300003,0.996152
0.804,0.996064
0.80500007,0.99608
0.80600005,0.996224
0.80700004,0.996032
0.808,0.996016
0.809,0.996256
0.81000006,0.996432
0.81100005,0.99616
0.81200004,0.996888
0.813,0.996632
0.814,0.996792
0.81500006,0.996512
0.81600004,0.996256
0.81700003,0.996408
0.818,0.996432
0.81900007,0.996712
0.82000005,0.996616
0.82100004,0.996648
0.822,0.996784
0.823,0.996776
0.82400006,0.996672
0.82500005,0.996808
0.82600003,0.996928
0.827,0.996904
0.82800007,0.996832
0.82900006,0.997136
0.83000004,0.996992
0.83100003,0.99696
0.832,0.996496
0.83300006,0.996976
0.83400005,0.996992
0.83500004,0.99708
0.836,0.997272
0.837,0.996968
0.83800006,0.997216
0.83900005,0.997152
0.84000003,0.99724
0.841,0.9972
0.84200007,0.997448
0.84300005,0.997128
0.84400004,0.997416
0.845,0.99708
0.846,0.997264
0.84700006,0.99772
0.84800005,0.997216
0.84900004,0.997512
0.85,0.997344
0.851,0.997472
0.85200006,0.99752
0.85300004,0.997376
0.85400003,0.997832
0.855,0.99748
0.85600007,0.99772
0.85700005,0.997656
0.85800004,0.997576
0.859,0.997656
0.86,0.997528
0.86100006,0.997784
0.86200005,0.997688
0.86300004,0.997712
0.864,0.997848
0.86500007,0.997432
0.86600006,0.997824
0.86700004,0.997728
0.86800003,0.997912
0.869,0.997736
0.87000006,0.998072
0.87100005,0.997944
0.87200004,0.997712
0.873,0.997736
0.874,0.99804
0.87500006,0.997832
0.87600005,0.997784
0.87700003,0.99788
0.878,0.998104
0.87900007,0.997824
0.88000005,0.998032
0.88100004,0.997896
0.882,0.998064
0.883,0.998008
0.88400006,0.9984
0.88500005,0.998264
0.88600004,0.998056
0.887,0.998208
0.8880001,0.998144
0.88900006,0.998048
0.89000005,0.997968
0.89100003,0.998152
0.892,0.998136
0.89300007,0.997984
0.89400005,0.998192
0.89500004,0.998376
0.896,0.998216
0.897,0.998208
0.89800006,0.998288
0.89900005,0.998416
0.90000004,0.998088
0.901,0.99812
0.90200007,0.998288
0.90300006,0.99828
0.90400004,0.998392
0.90500003,0.998368
0.906,0.998408
0.90700006,0.998408
0.90800005,0.99848
0.90900004,0.998352
0.91,0.998552
0.9110001,0.998568
0.91200006,0.998552
0.91300005,0.998344
0.91400003,0.998408
0.915,0.998664
0.91600007,0.998592
0.91700006,0.998656
0.91800004,0.9984
0.919,0.998576
0.92,0.998392
0.92100006,0.99884
0.92200005,0.9986
0.92300004,0.99872
0.924,0.998768
0.9250001,0.998824
0.92600006,0.998504
0.92700005,0.99864
0.92800003,0.99876
0.929,0.998784
0.93000007,0.998544
0.93100005,0.998896
0.93200004,0.998896
0.933,0.99888
0.934,0.998688
0.93500006,0.998888
0.93600005,0.998656
0.93700004,0.998776
0.938,0.99876
0.93900007,0.998784
0.94000006,0.998672
0.94100004,0.998808
0.94200003,0.998872
0.943,0.998712
0.94400007,0.999032
0.94500005,0.998832
0.94600004,0.998696
0.947,0.998792
0.9480001,0.9988
0.94900006,0.99888
0.95000005,0.998912
0.95100003,0.999048
0.952,0.998856
0.95300007,0.998912
0.95400006,0.999032
0.95500004,0.998976
0.95600003,0.998792
0.957,0.998968
0.95800006,0.998888
0.95900005,0.999064
0.96000004,0.998784
0.961,0.998904
0.9620001,0.998832
0.96300006,0.999104
0.96400005,0.998928
0.96500003,0.99908
0.966,0.999112
0.96700007,0.998872
0.96800005,0.999016
0.96900004,0.999176
0.97,0.99904
0.9710001,0.999016
0.97200006,0.999152
0.97300005,0.998952
0.97400004,0.99924
0.975,0.999336
0.9760001,0.999048
0.97700006,0.999
0.97800004,0.999248
0.97900003,0.999216
0.98,0.999176
0.98100007,0.999184
0.98200005,0.999248
0.98300004,0.99916
0.984,0.999136
0.9850001,0.999208
0.98600006,0.99924
0.98700005,0.99912
0.98800004,0.99908
0.989,0.99924
0.99000007,0.999264
0.99100006,0.999152
0.99200004,0.99936
0.99300003,0.999376
0.994,0.999336
0.99500006,0.999288
0.99600005,0.999368
0.99700004,0.999368
0.998,0.99912
0.9990001,0.999192
1,0.999296
